Theta [deg] SPL_Th [dB] SPL_L [dB] SPL [dB] 
78.750005 85.362638 67.170901 86.371347
78.750005 57.879828 38.721897 58.787697
78.750005 38.933791 18.738541 39.744075
78.750005 29.565202 0.769690 29.875134
78.750005 -1.957571 -16.354255 -0.442116
78.750005 1.737398 -32.871416 1.897488
78.750005 -46.015622 -48.779435 -41.267460
78.750005 -11.864233 -63.988721 -11.842752
78.750005 -18.202854 -78.401466 -18.194368
78.750005 -30.884079 -91.978738 -30.876425
