Theta [deg] SPL_Th [dB] SPL_L [dB] SPL [dB] 
78.750005 86.681441 79.771259 89.916744
78.750005 71.233739 52.746936 72.210581
78.750005 56.868625 35.543935 57.584062
78.750005 43.889855 21.365438 44.516237
78.750005 34.274303 8.306951 34.700632
78.750005 13.821838 -4.191510 14.850285
78.750005 -4.904832 -16.313292 -2.836343
78.750005 -23.872930 -28.114391 -19.716696
78.750005 0.702942 -39.595821 0.786461
78.750005 -13.243082 -50.731359 -13.127865
