Theta [deg] SPL_Th [dB] SPL_L [dB] SPL [dB] 
22.499991 45.203288 48.747367 53.175447
22.499991 -1.907701 -14.746042 -0.123184
22.499991 -63.135691 -69.267061 -59.650633
22.499991 -100.596072 -120.814444 -99.787845
22.499991 -150.548074 -170.999869 -149.760335
22.499991 -199.662950 -220.278748 -198.889309
22.499991 -245.684484 -268.773373 -245.096209
22.499991 -314.685910 -316.513471 -309.531113
22.499991 -335.402477 -363.528691 -335.068190
22.499991 -408.537505 -409.882491 -403.163390
