# Theta [deg] SPL_Th [dB] SPL_L [dB] SPL [dB] 
157.500013 25.839243 8.860933 26.989575
157.500013 -32.573405 -53.561218 -31.830851
157.500013 -98.110773 -118.151167 -97.286583
157.500013 -163.037691 -181.366988 -162.043959
157.500013 -215.333452 -243.264820 -214.991728
157.500013 -284.806114 -304.125246 -283.914110
157.500013 -338.655215 -364.153019 -338.205807
157.500013 -400.099183 -423.505622 -399.531352
157.500013 -473.928681 -482.312217 -471.125369
157.500013 -512.299350 -540.678936 -511.974496
