# Theta [deg] SPL_Th [dB] SPL_L [dB] SPL [dB] 
135.000005 53.438485 47.752746 57.073371
135.000005 19.854057 -51.895522 19.856303
135.000005 -24.772562 -53.718943 -24.467874
135.000005 -53.999970 -88.777350 -53.842928
135.000005 -87.840873 -123.489720 -87.698701
135.000005 -130.452391 -157.469939 -130.073572
135.000005 -157.009085 -190.864938 -156.834642
135.000005 -208.556300 -223.812961 -207.172931
135.000005 -226.974966 -256.405525 -226.686526
135.000005 -255.866710 -288.702541 -255.670773
