Theta [deg] SPL_Th [dB] SPL_L [dB] SPL [dB] 
81.846336 70.375361 52.881454 71.463375
81.846336 12.478149 20.326035 23.280430
81.846336 33.866201 -3.849891 33.978455
81.846336 20.857958 -23.282634 20.911715
81.846336 1.575141 -39.837705 1.648649
81.846336 -24.517674 -54.689430 -24.252470
81.846336 -30.329639 -68.425298 -30.222156
81.846336 -36.641801 -81.353388 -36.591453
81.846336 -39.663642 -93.662146 -39.646325
81.846336 -60.018296 -105.480815 -59.972108
