Theta [deg] SPL_Th [dB] SPL_L [dB] SPL [dB] 
101.250002 85.843105 61.878551 86.376660
101.250002 61.361107 27.909994 61.543784
101.250002 21.302169 2.269500 22.222551
101.250002 25.554867 -17.991659 25.612417
101.250002 13.990106 -34.783117 14.021683
101.250002 -5.142044 -49.660428 -5.090568
101.250002 -13.989300 -63.385701 -13.959906
101.250002 -16.364897 -76.319760 -16.356170
101.250002 -25.864246 -88.666764 -25.857958
101.250002 -43.756725 -100.560086 -43.744184
