Theta [deg] SPL_Th [dB] SPL_L [dB] SPL [dB] 
80.453245 71.097775 52.180216 72.029800
80.453245 44.350795 19.464666 44.832099
80.453245 22.826677 -5.075119 23.169543
80.453245 16.870815 -24.801483 16.942169
80.453245 3.399435 -41.569624 3.448316
80.453245 -16.062609 -56.605162 -15.981390
80.453245 -31.687660 -70.517378 -31.588838
80.453245 -37.662835 -83.619460 -37.619194
80.453245 -51.732861 -96.100735 -51.680487
80.453245 -46.267754 -108.090589 -46.260715
