Theta [deg] SPL_Th [dB] SPL_L [dB] SPL [dB] 
11.250007 -13.380861 -15.399963 -8.311274
11.250007 -118.518144 -139.551783 -117.779336
11.250007 -258.963344 -254.285691 -250.292766
11.250007 -330.227783 -364.533040 -330.062053
11.250007 -449.217211 -472.249076 -448.625191
11.250007 -537.611060 -578.328703 -537.531455
11.250007 -648.967791 -683.247871 -648.801584
11.250007 -744.709889 -787.301676 -744.645677
11.250007 -848.265838 -890.690646 -848.200384
11.250007 -958.814768 -993.557912 -958.657113
