# Theta [deg] SPL_Th [dB] SPL_L [dB] SPL [dB] 
45.000003 66.943250 54.438124 68.790626
45.000003 12.066046 9.300855 16.813628
45.000003 -1.898331 -27.804532 -1.469063
45.000003 -35.800887 -62.755179 -35.419359
45.000003 -89.723726 -96.571055 -86.468828
45.000003 -99.014090 -129.383973 -98.754779
45.000003 -116.024538 -161.121271 -115.976369
45.000003 -151.656209 -191.732830 -151.570537
45.000003 -166.816229 -221.294557 -166.799842
45.000003 -189.679986 -249.992175 -189.671610
