# Theta [deg] SPL_Th [dB] SPL_L [dB] SPL [dB] 
146.250008 42.549367 32.732722 44.980394
146.250008 -0.551352 -27.042851 -0.149421
146.250008 -52.414959 -74.383305 -51.748714
146.250008 -96.265181 -121.381105 -95.796110
146.250008 -136.754702 -167.209485 -136.497876
146.250008 -225.862413 -212.055454 -210.442851
146.250008 -226.731844 -256.115844 -226.441879
146.250008 -279.167101 -299.546748 -278.373083
146.250008 -323.278444 -342.471241 -322.374028
146.250008 -352.795405 -384.986414 -352.584551
