# Theta [deg] SPL_Th [dB] SPL_L [dB] SPL [dB] 
157.500013 44.826578 34.300387 47.089658
157.500013 -1.849247 -22.832551 -1.106324
157.500013 -60.071764 -76.345488 -58.830866
157.500013 -101.327815 -127.593684 -100.915553
157.500013 -148.731173 -177.559403 -148.422385
157.500013 -202.806100 -226.593062 -202.261862
157.500013 -243.925121 -274.816108 -243.680699
157.500013 -309.939215 -322.285481 -308.061177
157.500013 -337.468465 -369.061955 -337.242789
157.500013 -382.034982 -415.229220 -381.846881
