Theta [deg] SPL_Th [dB] SPL_L [dB] SPL [dB] 
101.250003 79.910584 69.935252 82.303138
101.250003 67.652212 35.954491 67.875230
101.250003 42.210871 11.760509 42.467826
101.250003 36.597178 -7.536123 36.650981
101.250003 21.002473 -24.015055 21.051082
101.250003 8.420766 -38.820442 8.458420
101.250003 -1.601835 -52.529968 -1.577186
101.250003 -21.303118 -65.459466 -21.249458
101.250003 -24.973195 -77.804336 -24.953390
101.250003 -52.263465 -89.696300 -52.147515
