# Theta [deg] SPL_Th [dB] SPL_L [dB] SPL [dB] 
0.000010 0.0 0.0 0.0
11.249998 15.424243 20.793292 24.537776
11.250007 13.705691 22.470100 25.170009
22.499991 45.203288 48.747367 53.175447
33.750009 61.711288 63.353328 68.591653
45.000003 72.345091 72.009565 78.199548
56.250008 79.440205 77.040075 84.343380
67.500013 84.040112 79.464240 88.070685
78.750005 86.681441 79.771259 89.916744
90.000000 87.542314 78.225178 90.097961
101.250002 86.531102 74.825956 88.537561
112.500004 83.833005 68.508564 85.206428
123.750005 79.183064 56.372639 79.789850
135.000005 72.043023 43.911147 72.377096
146.250008 61.369109 45.640930 62.684643
157.500013 44.826578 34.300387 47.089658
168.749997 13.243776 9.459084 17.576557
168.750006 15.015458 7.771188 18.148238
179.999979 0.0 0.0 0.0
