# Theta [deg] SPL_Th [dB] SPL_L [dB] SPL [dB] 
11.249998 -3.689056 10.472316 12.025876
11.249998 -90.881863 -94.133485 -86.335796
11.249998 -184.533511 -190.509404 -180.996758
11.249998 -281.907315 -283.873990 -276.814509
11.249998 -360.494509 -375.700764 -359.103700
11.249998 -455.394630 -466.450597 -453.250240
11.249998 -543.421622 -556.294291 -541.643470
11.249998 -630.552040 -645.334337 -629.097183
11.249998 -734.623085 -733.675113 -728.115573
11.249998 -804.559166 -821.431921 -803.395671
