# Theta [deg] SPL_Th [dB] SPL_L [dB] SPL [dB] 
0.000010 0.0 0.0 0.0
22.499991 26.172057 38.747007 40.581049
33.750009 42.845019 53.795741 55.963265
45.000003 53.690434 62.996467 65.554946
56.250008 60.996067 68.651136 71.661566
67.500013 65.750956 71.766028 75.289696
78.750005 68.437931 72.842709 76.937197
90.000000 69.283180 72.101177 76.826563
101.250002 68.362040 69.518002 74.979837
112.500004 65.606463 64.945173 71.302709
123.750005 60.793982 57.955760 65.510887
135.000005 53.438485 47.752746 57.073371
146.250008 42.549367 32.732722 44.980394
157.500013 25.839243 8.860933 26.989575s
179.999979 0.0 0.0 0.0
