# Theta [deg] SPL_Th [dB] SPL_L [dB] SPL [dB] 
45.000003 53.690434 62.996467 65.554946
45.000003 19.829697 13.343899 23.199208
45.000003 -26.515364 -27.889541 -21.154705
45.000003 -53.420867 -66.241438 -51.633047
45.000003 -88.894584 -103.224689 -87.368435
45.000003 -127.682649 -139.289323 -125.655787
45.000003 -157.944908 -174.572283 -156.750267
45.000003 -215.271395 -209.122604 -205.643300
45.000003 -225.028896 -242.985954 -223.994145
45.000003 -261.086030 -276.232810 -259.686395
