# Theta [deg] SPL_Th [dB] SPL_L [dB] SPL [dB] 
45.000003 72.345091 72.009565 78.199548
45.000003 48.281090 33.688097 49.765412
45.000003 9.419198 4.468151 13.312368
45.000003 0.492098 -21.869951 1.129877
45.000003 -50.098625 -46.999148 -42.390762
45.000003 -46.792480 -71.401177 -46.295993
45.000003 -92.682701 -95.211200 -87.834667
45.000003 -97.919684 -118.446365 -97.138412
45.000003 -153.966411 -141.089362 -139.312020
45.000003 -121.548396 -163.132327 -121.476316
