# Theta [deg] SPL_Th [dB] SPL_L [dB] SPL [dB] 
78.750005 68.437931 72.842709 76.937197
78.750005 46.547232 35.773658 48.754190
78.750005 -15.331840 7.684279 8.277338
78.750005 0.838324 -17.476305 1.833643
78.750005 -31.948792 -41.376034 -29.421078
78.750005 -44.062097 -64.508835 -43.273920
78.750005 -73.985113 -87.019091 -72.236598
78.750005 -103.205040 -108.933503 -99.584740
78.750005 -108.273428 -130.247307 -107.607591
78.750005 -118.246403 -150.967096 -118.047882
