# Theta [deg] SPL_Th [dB] SPL_L [dB] SPL [dB] 
0.000010 0.0 0.0 0.0 0.0
22.499991 30.260490 20.969822 32.822891
33.750009 52.718545 41.846922 54.903599
45.000003 66.943250 54.438124 68.790626
56.250008 76.238234 62.012873 77.781346
67.500013 82.109820 66.020039 83.375433
78.750005 85.362638 67.170901 86.371347
90.000000 86.400947 65.830369 87.178451
101.250002 85.316482 62.018471 85.891215
112.500004 82.029244 54.573729 82.389817
123.750005 76.115943 39.934007 76.249716
135.000005 66.775528 28.462964 66.880377
146.250008 52.504302 24.637859 52.848540
157.500013 30.002254 6.753618 30.580157
179.999979 0.0 0.0 0.0
