# Theta [deg] SPL_Th [dB] SPL_L [dB] SPL [dB] 
11.250007 -5.249198 11.916979 13.044227
11.250007 -91.465847 -92.726360 -86.052657
11.250007 -182.311656 -189.228241 -179.078344
11.250007 -286.816573 -282.616888 -278.444743
11.250007 -362.205954 -374.388334 -360.295807
11.250007 -448.772946 -465.038173 -447.530916
11.250007 -551.038429 -554.767111 -546.683607
11.250007 -629.043169 -643.700554 -627.568930
11.250007 -718.505927 -731.955955 -716.831802
11.250007 -819.984841 -819.651797 -813.796123
