# Theta [deg] SPL_Th [dB] SPL_L [dB] SPL [dB] 
101.250002 68.362040 69.518002 74.979837
101.250002 46.587067 31.016589 47.924939
101.250002 -4.323287 2.414344 5.703674
101.250002 0.810017 -22.970274 1.354661
101.250002 -30.394417 -47.073211 -29.206367
101.250002 -44.179153 -70.463370 -43.767740
101.250002 -72.619198 -93.306486 -71.851626
101.250002 -106.078342 -115.627870 -103.581343
101.250002 -107.558141 -137.401527 -107.282879
101.250002 -119.382103 -158.596366 -119.287537
