# Theta [deg] SPL_Th [dB] SPL_L [dB] SPL [dB] 
168.750006 15.015458 7.771188 18.148238
168.750006 -59.647884 -79.008795 -58.759949
168.750006 -142.714729 -161.502553 -141.769416
168.750006 -219.123160 -241.589941 -218.492755
168.750006 -290.577992 -320.311453 -290.299281
168.750006 -390.458023 -398.035231 -387.424715
168.750006 -444.221559 -474.897608 -443.971101
168.750006 -527.084744 -550.975453 -526.546771
168.750006 -604.308445 -626.351413 -603.647687
168.750006 -664.486957 -701.126348 -664.359997
