Theta [deg] SPL_Th [dB] SPL_L [dB] SPL [dB] 
89.999998 70.751724 52.231080 71.724973
89.999998 33.294088 19.866570 34.972163
89.999998 36.491551 -3.990091 36.573338
89.999998 22.451957 -23.008566 22.498156
89.999998 -0.819753 -39.067468 -0.714124
89.999998 -11.712790 -53.390199 -11.641479
89.999998 -24.130074 -66.590627 -24.064888
89.999998 -34.929807 -78.986899 -34.875532
89.999998 -41.907999 -90.771300 -41.876747
89.999998 -48.098184 -102.074464 -48.080823
