# Theta [deg] SPL_Th [dB] SPL_L [dB] SPL [dB] 
90.000000 86.400947 65.830369 87.178451
78.750005 85.362638 67.170901 86.371347
101.250002 85.316482 62.018471 85.891215
67.500013 82.109820 66.020039 83.375433
112.500004 82.029244 54.573729 82.389817
56.250008 76.238234 62.012873 77.781346
123.750005 76.115943 39.934007 76.249716
45.000003 66.943250 54.438124 68.790626
135.000005 66.775528 28.462964 66.880377
33.750009 52.718545 41.846922 54.903599
146.250008 52.504302 24.637859 52.848540
22.499991 30.260490 20.969822 32.822891
157.500013 30.002254 6.753618 30.580157
11.249998 -10.811686 -18.559999 -7.828464
168.750006 -11.112252 -31.457188 -10.315196
0.000010 -856.309553 -862.550352 -852.860509
179.999979 -812.907453 -831.324588 -811.923174
11.250007 -12.129363 -16.905647 -8.172657
168.749997 -12.504278 -29.825029 -11.395697
