Theta [deg] SPL_Th [dB] SPL_L [dB] SPL [dB] 
90.000001 65.760941 55.094331 67.992014
90.000001 51.927785 22.822923 52.227059
90.000001 25.067662 -0.387905 25.519204
90.000001 23.677981 -19.008577 23.741500
90.000001 0.751676 -34.937542 0.893194
90.000001 -1.477829 -49.228521 -1.442315
90.000001 -20.956518 -62.421411 -20.883448
90.000001 -26.112370 -74.815343 -26.080537
90.000001 -48.871564 -86.598624 -48.759451
90.000001 -52.395740 -97.901077 -52.349778
