Theta [deg] SPL_Th [dB] SPL_L [dB] SPL [dB] 
89.999997 65.279536 55.495774 67.718602
89.999997 52.151456 23.247342 52.457605
89.999997 16.977005 0.088302 18.138502
89.999997 24.050573 -18.502973 24.115067
89.999997 -16.426020 -34.422458 -15.395683
89.999997 -0.605166 -48.710983 -0.571072
89.999997 -39.853794 -61.903190 -39.193507
89.999997 -24.592282 -74.296855 -24.563910
89.999997 -55.321840 -86.079988 -55.073704
89.999997 -51.673547 -97.382341 -51.628647
