Theta [deg] SPL_Th [dB] SPL_L [dB] SPL [dB] 
89.999999 67.678480 54.518346 69.404128
89.999999 51.226743 22.196577 51.528556
89.999999 34.131058 -1.176927 34.278872
89.999999 20.129594 -19.892481 20.215803
89.999999 10.302324 -35.852078 10.344984
89.999999 -14.417196 -50.150783 -14.276394
89.999999 -14.146173 -63.345693 -14.116106
89.999999 -47.372462 -75.740355 -47.047179
89.999999 -43.211690 -87.524025 -43.158981
89.999999 -53.326212 -98.826733 -53.280225
