# Theta [deg] SPL_Th [dB] SPL_L [dB] SPL [dB] 
112.500004 83.833005 68.508564 85.206428
112.500004 67.954780 27.216799 68.034200
112.500004 47.688410 -18.965607 47.692446
112.500004 38.684946 -22.073417 38.692902
112.500004 20.943367 -33.482599 20.959852
112.500004 9.179134 -45.526351 9.195098
112.500004 -15.301762 -57.257028 -15.232687
112.500004 -21.033908 -68.665907 -20.997907
112.500004 -19.870566 -79.824852 -19.861838
112.500004 -29.869313 -90.784948 -29.861500
